X,CH1,CH2
Date and Time,2021-12-09 05:37:11.203-08:00,2021-12-09 05:37:11.203-08:00
Sampling Frequency (Hz),2072.681852,2072.681852
Delta Time (seconds),0.00048247,0.00048247
Sequence,volts,volts
0,0.03500000,0.12000000
1,-0.02000000,-0.08000000
2,-0.01500000,0.06400000
3,0.02000000,0.00000000
4,-0.01000000,0.06400000
5,0.03000000,0.00000000
6,-0.01500000,0.05600000
7,0.03500000,-0.01600000
8,-0.01000000,0.00000000
9,0.02500000,0.05600000
10,-0.00500000,-0.00800000
11,0.02500000,0.04800000
12,0.02000000,-0.04000000
13,-0.02000000,0.10400000
14,0.00000000,0.04000000
15,0.01500000,-0.01600000
16,-0.00500000,-0.01600000
17,0.02000000,0.04000000
18,-0.01000000,-0.04000000
19,0.03000000,0.09600000
20,-0.01500000,0.04000000
21,0.03500000,-0.03200000
22,-0.03500000,-0.03200000
23,0.03000000,0.11200000
24,-0.01000000,0.01600000
25,0.02500000,-0.04800000
26,-0.00500000,0.00800000
27,0.02500000,-0.04000000
28,0.00000000,-0.04800000
29,0.02000000,0.00000000
30,0.01000000,-0.00800000
31,0.00000000,-0.06400000
32,0.02000000,-0.07200000
33,-0.00500000,-0.01600000
34,-0.01000000,-0.03200000
35,0.02500000,-0.08800000
36,-0.01000000,-0.04000000
37,0.03000000,-0.09600000
38,-0.00500000,-0.10400000
39,0.03500000,-0.04000000
40,-0.00500000,-0.05600000
41,0.03500000,-0.12000000
42,0.03000000,-0.06400000
43,-0.01000000,-0.12800000
44,-0.00500000,-0.08000000
45,0.02000000,-0.13600000
46,0.01500000,-0.14400000
47,0.00000000,-0.08000000
48,0.00000000,-0.08800000
49,0.02000000,-0.14400000
50,0.00000000,-0.08800000
51,0.02500000,-0.14400000
52,0.02000000,-0.08800000
53,-0.00500000,-0.14400000
54,-0.01000000,-0.06400000
55,0.03500000,-0.20800000
56,-0.01000000,-0.08000000
57,0.03500000,-0.16000000
58,0.02000000,-0.07200000
59,-0.00500000,-0.14400000
60,-0.00500000,-0.12800000
61,0.02000000,-0.08800000
62,0.01500000,-0.08000000
63,0.00000000,-0.13600000
64,0.01500000,-0.07200000
65,0.00000000,-0.13600000
66,0.02500000,-0.06400000
67,-0.01500000,-0.14400000
68,-0.00500000,-0.12000000
69,0.02500000,-0.05600000
70,-0.01000000,-0.11200000
71,0.03000000,-0.05600000
72,-0.00500000,-0.11200000
73,0.04000000,-0.05600000
74,0.00000000,-0.10400000
75,0.03000000,-0.04800000
76,-0.01500000,-0.03200000
77,0.03000000,-0.11200000
78,0.00500000,-0.04800000
79,0.02500000,-0.09600000
80,0.01000000,-0.09600000
81,0.02500000,-0.04800000
82,0.04000000,0.02400000
83,0.01000000,-0.15200000
84,0.04000000,-0.04000000
85,0.01000000,-0.09600000
86,0.01000000,-0.16800000
87,0.05500000,0.00000000
88,0.01500000,-0.09600000
89,0.05000000,-0.03200000
90,0.02500000,-0.02400000
91,0.06000000,-0.09600000
92,0.03500000,-0.04000000
93,0.06000000,-0.09600000
94,0.05000000,-0.04000000
95,0.08000000,-0.08800000
96,0.06500000,-0.08800000
97,0.10500000,-0.04000000
98,0.10000000,-0.15200000
99,0.15000000,-0.01600000
100,0.13500000,-0.08800000
101,0.21000000,-0.04000000
102,0.19000000,-0.08800000
103,0.25500000,-0.04000000
104,0.26500000,-0.09600000
105,0.22000000,-0.04000000
106,0.26000000,-0.03200000
107,0.20000000,-0.09600000
108,0.24000000,-0.09600000
109,0.15000000,-0.04000000
110,0.15500000,-0.16000000
111,0.09500000,0.05600000
112,0.10000000,-0.08800000
113,0.06000000,-0.04800000
114,0.07000000,-0.08800000
115,0.04500000,-0.03200000
116,0.06000000,-0.08000000
117,0.03500000,-0.03200000
118,0.03000000,-0.08800000
119,0.06500000,-0.03200000
120,0.01500000,-0.19200000
121,0.09000000,0.08000000
122,0.02500000,-0.08800000
123,0.05500000,-0.02400000
124,0.06000000,-0.08800000
125,0.02500000,-0.02400000
126,0.02500000,-0.07200000
127,0.05500000,-0.01600000
128,0.03500000,-0.07200000
129,0.05500000,-0.01600000
130,0.05500000,-0.06400000
131,0.04000000,-0.00800000
132,0.06000000,0.05600000
133,0.03000000,-0.07200000
134,0.04000000,-0.04800000
135,-0.05500000,0.00800000
136,-0.05500000,-0.04000000
137,-0.21000000,0.02400000
138,-0.19500000,-0.03200000
139,-0.34000000,0.03200000
140,-0.32500000,0.04800000
141,-0.45000000,-0.02400000
142,-0.45000000,-0.00800000
143,-0.37500000,0.10400000
144,-0.40000000,0.00800000
145,-0.25500000,0.05600000
146,-0.26000000,-0.01600000
147,-0.15000000,0.12000000
148,-0.17000000,0.13600000
149,-0.09000000,-0.03200000
150,-0.11500000,0.03200000
151,-0.06000000,0.15200000
152,-0.09000000,0.04000000
153,-0.03000000,0.15200000
154,-0.07500000,0.18400000
155,-0.02500000,0.01600000
156,-0.05500000,-0.00800000
157,-0.01000000,0.18400000
158,-0.04500000,0.05600000
159,-0.00500000,0.12000000
160,-0.03500000,0.08000000
161,-0.00500000,0.12000000
162,-0.03000000,0.08800000
163,-0.00500000,0.13600000
164,-0.02000000,0.14400000
165,0.00000000,0.08000000
166,-0.01500000,0.14400000
167,0.01500000,0.08000000
168,-0.02500000,0.14400000
169,0.01500000,0.08800000
170,-0.02500000,0.14400000
171,0.01500000,0.08000000
172,0.02000000,0.08800000
173,-0.01500000,0.15200000
174,-0.02000000,0.14400000
175,0.03000000,0.08000000
176,-0.01500000,0.07200000
177,0.03500000,0.20000000
178,-0.00500000,0.08800000
179,0.01000000,0.13600000
180,0.01000000,0.08800000
181,-0.00500000,0.12800000
182,-0.01000000,0.12800000
183,0.01500000,0.08000000
184,-0.01000000,0.12800000
185,0.02500000,0.07200000
186,-0.02500000,0.20800000
187,0.04500000,-0.04800000
188,-0.01500000,0.12800000
189,0.02500000,0.07200000
190,-0.01500000,0.12800000
191,0.02500000,0.07200000
192,-0.01000000,0.12800000
193,0.02500000,0.07200000
194,-0.00500000,0.12000000
195,0.01500000,0.07200000
196,0.01500000,0.08000000
197,0.00000000,0.12800000
198,-0.01500000,0.12800000
199,0.03000000,0.08000000
200,-0.00500000,0.13600000
201,0.02000000,0.04800000
202,0.02500000,0.14400000
203,-0.01000000,0.08000000
204,0.02000000,0.08000000
205,-0.01000000,0.15200000
206,-0.00500000,0.08000000
207,0.02500000,0.15200000
208,-0.01500000,0.01600000
209,0.02500000,0.15200000
210,0.01500000,0.09600000
211,-0.01000000,0.14400000
212,0.01500000,0.14400000
213,0.00000000,0.09600000
214,0.00000000,0.14400000
215,0.01500000,0.09600000
216,0.02000000,0.14400000
217,-0.00500000,0.08800000
218,0.02500000,0.08000000
219,-0.01500000,0.14400000
220,0.03000000,0.16800000
221,-0.00500000,0.00800000
222,0.02500000,0.14400000
223,-0.01500000,0.07200000
224,-0.01000000,0.13600000
225,0.03000000,0.07200000
226,0.03000000,0.12800000
227,-0.01000000,0.08000000
228,0.00000000,0.12000000
229,0.01500000,0.07200000
230,0.00000000,0.11200000
231,0.01500000,0.06400000
232,-0.00500000,0.05600000
233,0.02500000,0.11200000
234,0.02500000,0.11200000
235,-0.00500000,0.04800000
236,-0.01000000,0.10400000
237,0.02500000,0.04000000
238,0.03000000,0.08800000
239,-0.01500000,0.03200000
240,-0.01500000,0.01600000
241,0.03500000,0.09600000
242,0.02000000,0.02400000
243,-0.01000000,0.10400000
244,0.01500000,0.06400000
245,-0.00500000,0.01600000
246,0.01000000,0.05600000
247,0.00000000,0.00800000
248,0.01500000,0.05600000
249,-0.00500000,0.00000000
250,-0.00500000,0.05600000
251,0.02000000,-0.00800000
252,-0.01500000,-0.10400000
253,0.02500000,0.12800000
254,-0.01000000,0.04000000
255,0.03500000,-0.02400000
256,-0.02000000,0.04000000
257,0.02500000,-0.02400000
258,-0.00500000,0.03200000
259,0.02500000,-0.04000000
260,-0.01000000,0.02400000
261,0.02500000,-0.03200000
262,-0.01500000,0.07200000
263,0.03000000,-0.11200000
264,0.01500000,0.00800000
265,-0.00500000,-0.04000000
266,-0.01000000,0.01600000
267,0.02500000,-0.04800000
268,-0.01000000,0.01600000
269,0.02500000,-0.04000000
270,-0.01000000,0.00800000
271,0.02500000,-0.05600000
272,0.03000000,-0.05600000
273,-0.01000000,0.00800000
274,-0.02000000,0.08000000
275,0.04500000,-0.10400000
276,0.02000000,-0.06400000
277,-0.01000000,-0.00800000
278,-0.00500000,-0.02400000
279,0.02000000,-0.06400000
280,0.01000000,-0.02400000
281,0.00000000,-0.08000000
282,0.00000000,-0.03200000
283,0.02000000,-0.08000000
284,0.03000000,0.00800000
285,-0.01500000,-0.16800000
286,-0.01000000,-0.16800000
287,0.03000000,0.02400000
288,-0.01000000,-0.18400000
289,0.03000000,0.03200000
290,-0.01500000,0.02400000
291,0.03500000,-0.18400000
292,-0.00500000,-0.01600000
293,0.03500000,-0.16000000
294,0.00000000,-0.03200000
295,0.02500000,-0.16000000
296,0.00000000,-0.16800000
297,0.02000000,-0.03200000
298,0.02500000,-0.17600000
299,-0.01500000,-0.03200000
300,0.02500000,-0.03200000
301,-0.00500000,-0.18400000
302,-0.00500000,-0.04000000
303,0.03000000,-0.18400000
304,-0.01000000,-0.08000000
305,0.03500000,-0.20800000
306,-0.01000000,-0.16000000
307,0.03500000,-0.07200000
308,0.03000000,-0.15200000
309,-0.01000000,-0.08800000
310,0.00000000,-0.09600000
311,0.02000000,-0.15200000
312,0.00000000,-0.08800000
313,0.02000000,-0.14400000
314,0.01500000,-0.14400000
315,0.00000000,-0.08800000
316,0.02500000,-0.13600000
317,-0.01000000,-0.07200000
318,0.02500000,-0.08000000
319,-0.00500000,-0.15200000
320,-0.01000000,-0.13600000
321,0.03500000,-0.06400000
322,-0.01000000,-0.06400000
323,0.03500000,-0.12800000
324,-0.00500000,-0.05600000
325,0.03500000,-0.12800000
326,-0.00500000,-0.11200000
327,0.02500000,-0.06400000
328,0.02500000,-0.10400000
329,0.00500000,-0.05600000
330,0.02000000,-0.10400000
331,0.01000000,-0.05600000
332,0.00000000,-0.09600000
333,0.03500000,-0.04000000
334,0.01000000,-0.08800000
335,0.03500000,-0.03200000
336,0.00000000,-0.08800000
337,0.04000000,-0.03200000
338,0.01500000,-0.02400000
339,0.04500000,-0.09600000
340,0.05000000,-0.01600000
341,0.01500000,-0.08800000
342,0.06500000,-0.08000000
343,0.02500000,-0.02400000
344,0.03500000,-0.02400000
345,0.07000000,-0.07200000
346,0.05500000,-0.07200000
347,0.08000000,-0.02400000
348,0.07500000,-0.00800000
349,0.12000000,-0.12800000
350,0.09500000,-0.13600000
351,0.15500000,0.00000000
352,0.13500000,-0.02400000
353,0.22500000,-0.07200000
354,0.19500000,-0.07200000
355,0.25000000,-0.01600000
356,0.22500000,-0.08000000
357,0.26500000,-0.00800000
358,0.25500000,-0.02400000
359,0.20000000,-0.08000000
360,0.21000000,-0.08000000
361,0.14000000,0.03200000
362,0.15000000,-0.06400000
363,0.08500000,-0.02400000
364,0.09000000,-0.07200000
365,0.05000000,-0.02400000
366,0.07500000,-0.01600000
367,0.04000000,-0.07200000
368,0.03000000,-0.07200000
369,0.06000000,0.03200000
370,0.06000000,-0.00800000
371,0.02500000,-0.07200000
372,0.02000000,-0.12800000
373,0.06000000,0.02400000
374,0.05000000,0.00000000
375,0.02500000,-0.07200000
376,0.03500000,-0.06400000
377,0.05000000,-0.00800000
378,0.03500000,-0.00800000
379,0.05000000,-0.05600000
380,0.03500000,-0.04800000
381,0.05000000,0.00000000
382,0.02000000,0.06400000
383,0.07500000,-0.12000000
384,0.06000000,-0.04000000
385,0.02500000,0.01600000
386,0.04500000,-0.03200000
387,-0.07500000,0.02400000
388,-0.06000000,-0.02400000
389,-0.22000000,0.04000000
390,-0.20500000,0.04000000
391,-0.36500000,-0.03200000
392,-0.32500000,-0.00800000
393,-0.44500000,0.04800000
394,-0.46000000,-0.00800000
395,-0.38000000,0.08000000
396,-0.39000000,0.02400000
397,-0.24500000,0.05600000
398,-0.25000000,0.02400000
399,-0.14500000,0.08800000
400,-0.16500000,0.03200000
401,-0.09000000,0.09600000
402,-0.11500000,0.04800000
403,-0.06000000,0.11200000
404,-0.08500000,0.04800000
405,-0.04500000,0.12000000
406,-0.08500000,-0.00800000
407,-0.02500000,0.18400000
408,-0.05500000,0.07200000
409,-0.01000000,0.13600000
410,-0.03500000,0.08800000
411,-0.01000000,0.13600000
412,-0.03000000,0.14400000
413,-0.01000000,0.08800000
414,-0.02000000,0.09600000
415,0.00000000,0.14400000
416,-0.02000000,0.08800000
417,0.00500000,0.16800000
418,-0.01500000,0.15200000
419,0.00500000,0.09600000
420,-0.02000000,0.10400000
421,0.02000000,0.16000000
422,-0.02000000,0.09600000
423,0.03500000,0.17600000
424,-0.02500000,0.15200000
425,0.02500000,0.09600000
426,0.02000000,0.10400000
427,-0.01500000,0.15200000
428,0.02000000,0.23200000
429,-0.02000000,0.04800000
430,-0.00500000,0.13600000
431,0.00500000,0.08800000
432,0.02500000,0.12800000
433,-0.02000000,0.05600000
434,-0.01000000,0.06400000
435,0.02000000,0.12800000
436,-0.02000000,0.12800000
437,0.03000000,0.06400000
438,-0.01500000,0.02400000
439,0.02500000,0.17600000
440,-0.01500000,0.12000000
441,0.02000000,0.04800000
442,0.01500000,0.05600000
443,-0.01500000,0.11200000
444,0.00000000,0.11200000
445,0.01500000,0.05600000
446,0.00000000,0.10400000
447,0.01500000,0.05600000
448,0.01500000,0.04800000
449,-0.00500000,0.10400000
450,-0.01000000,0.05600000
451,0.02000000,0.10400000
452,0.03000000,0.11200000
453,-0.01000000,0.04800000
454,0.02500000,0.11200000
455,-0.01500000,0.06400000
456,-0.00500000,0.05600000
457,0.02500000,0.12800000
458,-0.01000000,0.12800000
459,0.02500000,0.06400000
460,-0.01000000,0.08000000
461,0.02500000,0.14400000
462,-0.01000000,0.08800000
463,0.01500000,0.12800000
464,0.00000000,0.08800000
465,0.01500000,0.14400000
466,0.02500000,0.14400000
467,-0.01000000,0.09600000
468,0.02500000,0.09600000
469,-0.00500000,0.14400000
470,-0.01000000,0.09600000
471,0.03500000,0.15200000
472,-0.01000000,0.07200000
473,0.02500000,0.17600000
474,-0.01000000,0.09600000
475,0.02500000,0.16000000
476,-0.01000000,0.14400000
477,0.02500000,0.09600000
478,0.00000000,0.14400000
479,0.01500000,0.08800000
480,0.01500000,0.14400000
481,0.00000000,0.08800000
482,0.02000000,0.15200000
483,-0.00500000,0.06400000
484,-0.00500000,0.13600000
485,0.03000000,0.08000000
486,-0.01000000,0.12800000
487,0.02500000,0.07200000
488,0.03000000,0.12800000
489,-0.01000000,0.05600000
490,-0.00500000,0.05600000
491,0.03000000,0.12000000
492,0.02000000,0.03200000
493,-0.01000000,0.14400000
494,-0.01000000,0.15200000
495,0.02500000,0.02400000
496,0.00000000,0.10400000
497,0.02000000,-0.01600000
498,0.02500000,0.07200000
499,-0.01000000,0.01600000
500,0.02000000,0.06400000
501,-0.00500000,0.00800000
502,-0.01000000,0.04800000
503,0.03000000,-0.00800000
504,0.02000000,0.14400000
505,-0.02000000,-0.04000000
506,0.02500000,0.03200000
507,-0.02000000,-0.03200000
508,-0.01000000,-0.04000000
509,0.02500000,0.02400000
510,-0.00500000,0.01600000
511,0.02500000,-0.04000000
512,0.00000000,0.00800000
513,0.02000000,-0.04000000
514,0.00000000,-0.04000000
515,0.01500000,0.00800000
516,-0.00500000,0.00800000
517,0.02500000,-0.04800000
518,-0.01000000,0.00800000
519,0.02500000,-0.04800000
520,0.03000000,0.00800000
521,-0.01500000,-0.05600000
522,0.02500000,0.00800000
523,-0.00500000,-0.06400000
524,0.03500000,-0.11200000
525,-0.02000000,0.02400000
526,0.02000000,0.05600000
527,-0.01000000,-0.09600000
528,0.00000000,0.00000000
529,0.01500000,-0.04800000
530,0.00000000,0.00000000
531,0.01000000,-0.04800000
532,-0.00500000,0.00000000
533,0.02500000,-0.05600000
534,-0.00500000,0.00000000
535,0.02500000,-0.05600000
536,-0.00500000,-0.00800000
537,0.03000000,-0.05600000
538,-0.02500000,0.05600000
539,0.04500000,-0.11200000
540,0.02500000,-0.00800000
541,-0.01500000,-0.07200000
542,-0.01000000,-0.07200000
543,0.03000000,-0.01600000
544,-0.00500000,-0.02400000
545,0.02000000,-0.07200000
546,0.01500000,-0.03200000
547,0.00000000,-0.08000000
548,0.01500000,-0.03200000
549,0.00000000,-0.08800000
550,0.00000000,-0.04000000
551,0.02500000,-0.09600000
552,-0.00500000,-0.04000000
553,0.02500000,-0.10400000
554,-0.01000000,-0.05600000
555,0.03000000,-0.11200000
556,-0.01000000,-0.05600000
557,0.03500000,-0.13600000
558,-0.01000000,-0.06400000
559,0.02500000,-0.14400000
560,0.02000000,-0.05600000
561,-0.01000000,-0.15200000
562,0.00000000,-0.09600000
563,0.02500000,-0.16000000
564,0.00000000,-0.15200000
565,0.01500000,-0.09600000
566,-0.01500000,-0.16000000
567,0.02000000,-0.10400000
568,-0.00500000,-0.07200000
569,0.03000000,-0.18400000
570,-0.00500000,-0.16800000
571,0.02500000,-0.11200000
572,-0.01000000,-0.16800000
573,0.03500000,-0.09600000
574,0.00000000,-0.08800000
575,0.03000000,-0.16800000
576,-0.00500000,-0.10400000
577,0.03000000,-0.16000000
578,0.00500000,-0.20000000
579,0.02500000,-0.08800000
580,0.02000000,-0.15200000
581,0.01000000,-0.10400000
582,0.01000000,-0.14400000
583,0.02500000,-0.09600000
584,0.00500000,-0.13600000
585,0.04000000,-0.08800000
586,0.03500000,-0.13600000
587,0.01000000,-0.07200000
588,0.00000000,-0.14400000
589,0.05000000,-0.05600000
590,0.00500000,-0.12800000
591,0.05500000,-0.07200000
592,0.02000000,-0.12000000
593,0.06000000,-0.06400000
594,0.03500000,-0.11200000
595,0.06000000,-0.06400000
596,0.04500000,-0.10400000
597,0.07000000,-0.06400000
598,0.06000000,-0.10400000
599,0.09000000,-0.04800000
600,0.07500000,-0.10400000
601,0.13000000,-0.04800000
602,0.11500000,0.00000000
603,0.18000000,-0.16000000
604,0.17000000,-0.09600000
605,0.24000000,-0.04000000
606,0.22000000,-0.09600000
607,0.27000000,-0.03200000
608,0.26000000,-0.09600000
609,0.21000000,-0.03200000
610,0.23500000,-0.04000000
611,0.18000000,-0.08800000
612,0.18000000,-0.13600000
613,0.11000000,0.04000000
614,0.12000000,-0.08000000
615,0.06500000,-0.03200000
616,0.08000000,-0.02400000
617,0.04500000,-0.08000000
618,0.03000000,-0.07200000
619,0.07000000,-0.02400000
620,0.02500000,-0.07200000
621,0.07000000,-0.01600000
622,0.07000000,-0.01600000
623,0.01000000,-0.07200000
624,0.06500000,-0.07200000
625,0.01500000,0.03200000
626,0.02000000,-0.11200000
627,0.05500000,0.03200000
628,0.03000000,-0.10400000
629,0.05500000,0.02400000
630,0.05500000,0.02400000
631,0.03000000,-0.08800000
632,0.03000000,-0.10400000
633,0.06500000,0.04000000
634,0.03000000,0.04000000
635,0.08000000,-0.12000000
636,0.06000000,0.04000000
637,-0.01000000,-0.09600000
638,0.01000000,-0.10400000
639,-0.14500000,0.08800000
640,-0.11500000,-0.10400000
641,-0.27500000,0.08800000
642,-0.25000000,-0.08000000
643,-0.39000000,0.05600000
644,-0.37500000,-0.07200000
645,-0.44500000,0.05600000
646,-0.44500000,0.05600000
647,-0.31500000,-0.06400000
648,-0.32500000,-0.04000000
649,-0.20000000,0.07200000
650,-0.20500000,0.00000000
651,-0.13000000,0.04000000
652,-0.14000000,0.00800000
653,-0.08000000,0.06400000
654,-0.09500000,0.07200000
655,-0.05500000,-0.00800000
656,-0.09500000,0.16000000
657,-0.02000000,-0.07200000
658,-0.06500000,0.02400000
659,-0.02000000,0.08000000
660,-0.04500000,0.03200000
661,-0.01500000,0.08000000
662,-0.03500000,0.04000000
663,-0.01500000,0.09600000
664,-0.02500000,0.05600000
665,-0.00500000,0.09600000
666,0.01500000,0.11200000
667,-0.03000000,0.05600000
668,0.02000000,0.01600000
669,-0.02500000,0.18400000
670,-0.02500000,0.07200000
671,0.02000000,0.13600000
672,-0.02500000,0.08000000
673,0.02000000,0.14400000
674,-0.02000000,0.08800000
675,0.02000000,0.15200000
676,0.02500000,0.09600000
677,-0.01500000,0.15200000
678,0.02000000,0.09600000
679,-0.01000000,0.15200000
680,-0.00500000,0.10400000
681,0.01000000,0.15200000
682,-0.00500000,0.10400000
683,0.01000000,0.16000000
684,-0.00500000,0.05600000
685,0.02500000,0.16800000
686,-0.01000000,0.16000000
687,0.03000000,0.10400000
688,-0.02500000,0.16800000
689,0.03000000,0.09600000
690,-0.01000000,0.23200000
691,0.02000000,0.08000000
692,-0.01500000,0.10400000
693,0.01500000,0.16000000
694,-0.01000000,0.10400000
695,0.02000000,0.16000000
696,-0.00500000,0.15200000
697,0.01500000,0.10400000
698,0.00000000,0.15200000
699,0.02000000,0.09600000
700,-0.02000000,0.08000000
701,0.03000000,0.17600000
702,0.02500000,0.10400000
703,-0.00500000,0.15200000
704,-0.00500000,0.15200000
705,0.03500000,0.09600000
706,-0.00500000,0.15200000
707,0.03000000,0.08800000
708,-0.01000000,0.08800000
709,0.03000000,0.15200000
710,-0.01500000,0.06400000
711,0.03500000,0.28800000
712,0.02000000,0.06400000
713,-0.00500000,0.18400000
714,0.02000000,0.07200000
715,-0.00500000,0.20800000
716,0.02500000,0.19200000
717,-0.01000000,0.05600000
718,0.03000000,0.05600000
719,-0.01000000,0.21600000
720,0.02500000,0.22400000
721,-0.01500000,0.04000000
722,0.04000000,0.23200000
723,-0.01500000,0.03200000
724,0.02500000,0.20800000
725,-0.01500000,0.04000000
726,0.01500000,0.16800000
727,-0.00500000,0.12000000
728,0.01500000,0.16000000
729,-0.00500000,0.12000000
730,0.00000000,0.11200000
731,0.01500000,0.16800000
732,0.02000000,0.16000000
733,-0.01000000,0.11200000
734,0.02500000,0.24000000
735,-0.01000000,0.08800000
736,0.02000000,0.16800000
737,-0.01000000,0.06400000
738,-0.01000000,0.16800000
739,0.03000000,0.09600000
740,-0.00500000,0.10400000
741,0.03000000,0.16000000
742,-0.01000000,0.14400000
743,0.02500000,0.08800000
744,0.02500000,0.02400000
745,-0.01500000,0.14400000
746,0.00000000,0.07200000
747,0.01500000,0.12800000
748,0.00000000,0.11200000
749,0.01500000,0.05600000
750,-0.00500000,0.10400000
751,0.02500000,0.04800000
752,-0.01000000,0.09600000
753,0.02500000,0.03200000
754,-0.01000000,0.00800000
755,0.03500000,0.09600000
756,-0.01500000,-0.03200000
757,0.03000000,0.10400000
758,-0.00500000,0.05600000
759,0.02500000,-0.01600000
760,-0.01000000,0.03200000
761,0.02500000,-0.02400000
762,0.01500000,0.02400000
763,-0.00500000,-0.02400000
764,0.00000000,0.01600000
765,0.01500000,-0.04000000
766,-0.00500000,-0.11200000
767,0.02000000,0.05600000
768,-0.00500000,0.00800000
769,0.02500000,-0.05600000
770,0.02000000,0.00000000
771,-0.00500000,-0.06400000
772,-0.01500000,-0.06400000
773,0.04000000,0.00000000
774,-0.01000000,0.00000000
775,0.03500000,-0.08000000
776,-0.02000000,-0.17600000
777,0.04000000,0.04800000
778,0.01500000,-0.02400000
779,-0.00500000,-0.07200000
780,0.00000000,-0.02400000
781,0.01000000,-0.07200000
782,0.00000000,-0.02400000
783,0.01500000,-0.08000000
784,0.02000000,-0.02400000
785,-0.01000000,-0.08800000
786,-0.01000000,-0.03200000
787,0.03000000,-0.08800000
788,0.03500000,-0.13600000
789,-0.01500000,0.01600000
790,-0.01000000,-0.03200000
791,0.03500000,-0.11200000
792,-0.01000000,-0.04000000
793,0.02500000,-0.10400000
794,-0.01000000,-0.11200000
795,0.02500000,-0.05600000
796,0.01500000,-0.05600000
797,0.00000000,-0.10400000
798,0.01500000,-0.05600000
799,0.00000000,-0.12000000
800,-0.01000000,-0.06400000
801,0.02500000,-0.16000000
802,-0.01000000,-0.07200000
803,0.03000000,-0.13600000
804,0.02000000,-0.07200000
805,-0.00500000,-0.13600000
806,-0.01500000,-0.08000000
807,0.03000000,-0.15200000
808,-0.01500000,-0.08000000
809,0.02500000,-0.15200000
810,0.02500000,-0.24000000
811,-0.04000000,-0.00800000
812,0.01500000,-0.15200000
813,0.00000000,-0.10400000
814,0.00000000,-0.11200000
815,0.02000000,-0.16800000
816,0.00000000,-0.10400000
817,0.02500000,-0.16800000
818,-0.00500000,-0.11200000
819,0.03000000,-0.16800000
820,0.04000000,-0.11200000
821,-0.01500000,-0.18400000
822,0.04000000,-0.20000000
823,-0.00500000,-0.11200000
824,-0.01000000,-0.12800000
825,0.03500000,-0.18400000
826,-0.00500000,-0.17600000
827,0.03000000,-0.13600000
828,0.00500000,-0.18400000
829,0.02500000,-0.13600000
830,0.02000000,-0.13600000
831,0.01000000,-0.18400000
832,0.00000000,-0.17600000
833,0.03000000,-0.13600000
834,0.00500000,-0.12800000
835,0.03000000,-0.18400000
836,0.00500000,-0.12800000
837,0.03500000,-0.19200000
838,0.00000000,-0.12800000
839,0.04500000,-0.19200000
840,0.01500000,-0.12000000
841,0.04500000,-0.19200000
842,0.02000000,-0.20800000
843,0.05500000,-0.06400000
844,0.03000000,-0.16800000
845,0.05000000,-0.12800000
846,0.03500000,-0.12000000
847,0.06000000,-0.16800000
848,0.05000000,-0.11200000
849,0.08000000,-0.16800000
850,0.06500000,-0.16000000
851,0.10500000,-0.10400000
852,0.09500000,-0.21600000
853,0.15000000,-0.02400000
854,0.13000000,-0.22400000
855,0.21000000,-0.02400000
856,0.19000000,0.00000000
857,0.26000000,-0.22400000
858,0.22500000,-0.20000000
859,0.27000000,-0.00800000
860,0.25500000,-0.04000000
861,0.21000000,-0.16800000
862,0.22500000,-0.03200000
863,0.15000000,-0.13600000
864,0.16500000,-0.03200000
865,0.09500000,-0.16000000
866,0.10500000,-0.00800000
867,0.05500000,-0.15200000
868,0.07000000,-0.08800000
869,0.03500000,-0.04000000
870,0.02500000,-0.08800000
871,0.06500000,-0.03200000
872,0.05500000,-0.02400000
873,0.03000000,-0.08800000
874,0.01500000,-0.01600000
875,0.06000000,-0.07200000
876,0.05500000,-0.08800000
877,0.02500000,0.01600000
878,0.04500000,-0.04800000
879,0.02500000,0.00000000
880,0.04500000,0.00000000
881,0.03500000,-0.04800000
882,0.03000000,-0.04800000
883,0.05500000,0.02400000
884,0.03000000,-0.02400000
885,0.06500000,0.02400000
886,0.03000000,-0.03200000
887,0.06500000,0.08800000
888,0.04500000,-0.01600000
889,-0.04500000,0.04000000
890,-0.03000000,0.04800000
891,-0.18500000,-0.01600000
892,-0.17000000,-0.00800000
893,-0.31000000,0.04800000
894,-0.30000000,0.05600000
895,-0.40500000,0.00800000
896,-0.39000000,0.01600000
897,-0.43500000,0.06400000
898,-0.40500000,0.01600000
899,-0.27500000,0.07200000
900,-0.28500000,0.02400000
901,-0.17500000,0.07200000
902,-0.19000000,0.03200000
903,-0.11500000,0.08800000
904,-0.12500000,0.03200000
905,-0.07000000,0.09600000
906,-0.09000000,0.03200000
907,-0.02500000,0.09600000
908,-0.08500000,-0.08800000
909,-0.01500000,0.18400000
910,-0.05000000,0.16000000
911,-0.02500000,0.04800000
912,-0.04000000,0.05600000
913,-0.02000000,0.09600000
914,-0.03000000,0.09600000
915,-0.01000000,0.05600000
916,-0.02500000,0.06400000
917,0.00000000,0.11200000
918,-0.03000000,0.05600000
919,0.01000000,0.12800000
920,-0.02500000,0.06400000
921,0.01500000,0.13600000
922,0.01000000,0.12800000
923,-0.02500000,0.06400000
924,-0.02000000,0.05600000
925,0.01000000,0.13600000
926,-0.02000000,0.12800000
927,0.01500000,0.08000000
928,-0.01500000,0.08800000
929,0.01500000,0.13600000
930,-0.01500000,0.08800000
931,0.01500000,0.17600000
932,-0.01000000,0.15200000
933,0.02000000,0.08800000
934,-0.01500000,0.09600000
935,0.02000000,0.15200000
936,-0.01500000,0.10400000
937,0.02500000,0.16000000
938,-0.01000000,0.11200000
939,0.02000000,0.16800000
940,0.03000000,0.12000000
941,-0.02500000,0.17600000
942,0.03500000,0.02400000
943,-0.04000000,0.20800000
944,-0.01000000,0.12800000
945,0.02000000,0.17600000
946,0.00000000,0.13600000
947,0.01000000,0.18400000
948,0.00000000,0.18400000
949,0.01500000,0.13600000
950,0.02000000,0.13600000
951,-0.00500000,0.18400000
952,-0.01000000,0.14400000
953,0.03500000,0.19200000
954,-0.01000000,0.20000000
955,0.03500000,0.12800000
956,-0.01500000,0.12800000
957,0.02500000,0.20800000
958,0.03500000,0.13600000
959,-0.02500000,0.23200000
960,-0.00500000,0.18400000
961,0.02000000,0.13600000
962,0.02000000,0.18400000
963,-0.00500000,0.13600000
964,0.01000000,0.17600000
965,0.00000000,0.12800000
966,-0.01500000,0.12800000
967,0.02000000,0.18400000
968,-0.00500000,0.17600000
969,0.02000000,0.12000000
970,-0.01000000,0.17600000
971,0.02500000,0.11200000
972,-0.01500000,0.11200000
973,0.03000000,0.17600000
974,0.01500000,0.04000000
975,-0.01000000,0.19200000
976,0.01500000,0.21600000
977,-0.01000000,0.11200000
978,-0.00500000,0.15200000
979,0.02000000,0.11200000
980,0.00000000,0.10400000
981,0.01500000,0.15200000
982,0.00000000,0.15200000
983,0.02000000,0.09600000
984,-0.01000000,0.09600000
985,0.03000000,0.15200000
986,0.03000000,0.09600000
987,-0.01000000,0.15200000
988,0.03500000,0.08800000
989,-0.00500000,0.14400000
990,-0.00500000,0.15200000
991,0.03000000,0.07200000
992,-0.01000000,0.13600000
993,0.03000000,0.07200000
994,-0.00500000,0.12000000
995,0.02500000,0.04000000
996,-0.00500000,0.11200000
997,0.02000000,0.06400000
998,0.00000000,0.11200000
999,0.01500000,0.06400000
1000,-0.01000000,0.11200000
1001,0.02000000,0.04800000
1002,-0.01500000,0.10400000
1003,0.03000000,0.04800000
1004,-0.00500000,0.09600000
1005,0.02000000,0.04000000
1006,0.03000000,0.13600000
1007,-0.01500000,0.02400000
1008,-0.01500000,0.02400000
1009,0.02000000,0.11200000
1010,-0.01000000,0.08000000
1011,0.02500000,0.02400000
1012,0.01500000,0.07200000
1013,0.00000000,0.02400000
1014,0.00000000,0.07200000
1015,0.01500000,0.01600000
1016,0.02000000,0.01600000
1017,0.00000000,0.07200000
1018,-0.01000000,0.08800000
1019,0.03000000,-0.05600000
1020,-0.01000000,0.06400000
1021,0.02500000,0.00000000
1022,-0.01000000,0.00000000
1023,0.02500000,0.06400000
1024,-0.01500000,0.06400000
1025,0.03000000,-0.00800000
1026,-0.01000000,-0.00800000
1027,0.02500000,0.05600000
1028,-0.00500000,-0.00800000
1029,0.02500000,0.04000000
1030,-0.01000000,0.05600000
1031,0.02000000,-0.04800000
1032,0.01500000,0.02400000
1033,-0.01500000,-0.02400000
1034,-0.00500000,0.01600000
1035,0.02500000,-0.03200000
1036,-0.00500000,0.01600000
1037,0.03000000,-0.04000000
1038,-0.01000000,0.01600000
1039,0.04000000,-0.13600000
1040,0.04000000,0.00800000
1041,-0.01000000,-0.07200000
1042,0.02500000,-0.01600000
1043,-0.00500000,-0.07200000
1044,-0.01000000,-0.02400000
1045,0.02500000,-0.08000000
1046,0.01500000,-0.04000000
1047,0.00000000,-0.09600000
1048,0.01500000,-0.04800000
1049,0.00000000,-0.11200000
1050,0.02000000,-0.05600000
1051,-0.00500000,-0.12000000
1052,-0.01500000,-0.06400000
1053,0.03000000,-0.12000000
1054,0.00000000,-0.12800000
1055,0.02500000,-0.07200000
1056,0.02000000,-0.13600000
1057,-0.00500000,-0.05600000
1058,-0.00500000,-0.04800000
1059,0.03500000,-0.19200000
1060,-0.01000000,-0.09600000
1061,0.03000000,-0.14400000
1062,-0.00500000,-0.09600000
1063,0.02500000,-0.16800000
1064,0.01500000,-0.11200000
1065,0.00000000,-0.15200000
1066,0.02000000,-0.15200000
1067,-0.00500000,-0.10400000
1068,0.02000000,-0.10400000
1069,0.00000000,-0.16800000
1070,-0.01000000,-0.10400000
1071,0.02500000,-0.16800000
1072,-0.01000000,-0.17600000
1073,0.03000000,-0.09600000
1074,-0.01000000,-0.16800000
1075,0.03000000,-0.10400000
1076,0.00000000,-0.11200000
1077,0.02500000,-0.16000000
1078,0.02000000,-0.16800000
1079,0.00000000,-0.11200000
1080,0.02000000,-0.16800000
1081,0.00500000,-0.12000000
1082,0.02000000,-0.16800000
1083,0.00500000,-0.11200000
1084,0.00000000,-0.11200000
1085,0.03000000,-0.17600000
1086,0.00500000,-0.10400000
1087,0.04000000,-0.16800000
1088,0.01000000,-0.11200000
1089,0.03500000,-0.16800000
1090,0.01000000,-0.10400000
1091,0.05500000,-0.18400000
1092,0.01500000,-0.16800000
1093,0.04500000,-0.11200000
1094,0.02000000,-0.12000000
1095,0.05500000,-0.16800000
1096,0.02500000,-0.12000000
1097,0.05500000,-0.16800000
1098,0.04500000,-0.16800000
1099,0.07000000,-0.12000000
1100,0.04500000,-0.16800000
1101,0.08500000,-0.10400000
1102,0.07500000,-0.16000000
1103,0.13000000,-0.10400000
1104,0.10500000,-0.07200000
1105,0.17500000,-0.17600000
1106,0.14500000,-0.16000000
1107,0.23000000,-0.09600000
1108,0.20500000,-0.16000000
1109,0.25500000,-0.09600000
1110,0.26500000,-0.14400000
1111,0.22500000,-0.09600000
1112,0.23500000,-0.14400000
1113,0.18500000,-0.09600000
1114,0.19500000,-0.12800000
1115,0.12500000,-0.09600000
1116,0.13000000,-0.13600000
1117,0.06000000,-0.05600000
1118,0.09000000,-0.12800000
1119,0.04000000,-0.06400000
1120,0.04000000,-0.12800000
1121,0.07000000,-0.06400000
1122,0.03500000,0.00000000
1123,0.07000000,-0.20000000
1124,0.02500000,-0.04800000
1125,0.07500000,-0.12000000
1126,0.03500000,-0.11200000
1127,0.06500000,-0.05600000
1128,0.03500000,-0.04000000
1129,0.05500000,-0.10400000
1130,0.05000000,-0.09600000
1131,0.03500000,-0.04000000
1132,0.03500000,-0.08800000
1133,0.06000000,-0.03200000
1134,0.03500000,-0.08800000
1135,0.05500000,-0.03200000
1136,0.03000000,-0.08000000
1137,0.07000000,-0.01600000
1138,0.07000000,-0.00800000
1139,0.00500000,-0.12800000
1140,0.01500000,-0.07200000
1141,-0.12000000,-0.00800000
1142,-0.10500000,-0.06400000
1143,-0.25500000,-0.00800000
1144,-0.24500000,-0.04800000
1145,-0.37500000,0.00000000
1146,-0.35500000,-0.04000000
1147,-0.44000000,0.00800000
1148,-0.44000000,0.00800000
1149,-0.33500000,-0.04000000
1150,-0.34500000,0.08800000
1151,-0.21000000,-0.03200000
1152,-0.22500000,-0.01600000
1153,-0.13500000,0.03200000
1154,-0.15000000,-0.01600000
1155,-0.08500000,0.04000000
1156,-0.10500000,-0.01600000
1157,-0.05000000,0.05600000
1158,-0.08000000,-0.00800000
1159,-0.03000000,0.07200000
1160,-0.06000000,0.11200000
1161,-0.02500000,-0.04800000
1162,-0.02500000,0.02400000
1163,-0.04000000,0.06400000
1164,-0.03500000,0.02400000
1165,-0.01500000,0.07200000
1166,-0.03000000,0.02400000
1167,0.00500000,0.08800000
1168,0.00500000,0.03200000
1169,-0.03000000,0.09600000
1170,0.02000000,-0.10400000
1171,-0.04000000,0.24800000
1172,0.00500000,0.04800000
1173,-0.02500000,0.12000000
1174,-0.02500000,0.04000000
1175,0.01500000,0.11200000
1176,-0.02000000,0.05600000
1177,0.01500000,0.12000000
1178,-0.01500000,0.07200000
1179,0.01500000,0.12000000
1180,-0.00500000,0.12800000
1181,0.00500000,0.08000000
1182,0.01000000,0.08000000
1183,-0.01000000,0.15200000
1184,-0.01500000,0.09600000
1185,0.01500000,0.14400000
1186,-0.01500000,0.10400000
1187,0.02500000,0.17600000
1188,-0.02000000,0.05600000
1189,0.02500000,0.24800000
1190,-0.01500000,0.07200000
1191,0.04500000,0.24000000
1192,-0.01500000,0.22400000
1193,0.02500000,0.09600000
1194,0.01500000,0.10400000
1195,-0.01000000,0.22400000
1196,-0.00500000,0.09600000
1197,0.02000000,0.23200000
1198,0.02000000,0.10400000
1199,-0.00500000,0.23200000
