X,CH1,CH2
Date and Time,2021-12-09 05:40:28.603-08:00,2021-12-09 05:40:28.603-08:00
Sampling Frequency (Hz),2038.731863,2038.731863
Delta Time (seconds),0.00049050,0.00049050
Sequence,volts,volts
Machine, 7"  x 10" Mini Lathe | item number 93212 | serial no. 01504,  7"  x 10" Mini Lathe | item number 93212 | serial no. 01504




0,0.03000000,0.06400000
1,-0.01500000,-0.00800000
2,0.02000000,0.06400000
3,-0.00500000,-0.01600000
4,0.02500000,-0.08800000
5,-0.02000000,0.14400000
6,0.00000000,0.04000000
7,0.01500000,-0.01600000
8,0.02000000,0.03200000
9,-0.00500000,-0.02400000
10,-0.01000000,-0.07200000
11,0.03000000,0.07200000
12,-0.01000000,0.01600000
13,0.03000000,-0.04800000
14,-0.00500000,0.02400000
15,0.03500000,-0.05600000
16,-0.01500000,0.02400000
17,0.03000000,-0.10400000
18,-0.00500000,0.00000000
19,0.02000000,-0.05600000
20,0.01500000,-0.00800000
21,0.00000000,-0.06400000
22,0.00500000,-0.01600000
23,0.01500000,-0.06400000
24,-0.00500000,-0.07200000
25,0.03500000,-0.02400000
26,-0.01000000,-0.07200000
27,0.05000000,-0.01600000
28,-0.03500000,-0.10400000
29,0.03500000,0.08000000
30,0.04000000,-0.08800000
31,-0.00500000,-0.01600000
32,-0.00500000,-0.02400000
33,0.04500000,-0.08800000
34,0.00000000,-0.01600000
35,0.03500000,-0.09600000
36,0.01000000,-0.08000000
37,0.03500000,-0.04000000
38,0.02500000,-0.03200000
39,0.04000000,-0.08800000
40,0.03000000,-0.03200000
41,0.05500000,-0.08800000
42,0.04500000,-0.08800000
43,0.08000000,-0.03200000
44,0.07000000,0.04800000
45,0.12500000,-0.12000000
46,0.10500000,-0.08800000
47,0.20500000,-0.01600000
48,0.18500000,-0.08800000
49,0.31000000,-0.01600000
50,0.30000000,-0.08000000
51,0.35500000,-0.02400000
52,0.32500000,-0.07200000
53,0.21000000,-0.01600000
54,0.21000000,-0.02400000
55,0.10500000,-0.07200000
56,0.11000000,-0.07200000
57,0.07000000,-0.02400000
58,0.09500000,-0.08000000
59,0.06000000,-0.00800000
60,0.08500000,-0.05600000
61,0.05000000,0.00000000
62,0.09500000,-0.05600000
63,0.04000000,0.04800000
64,0.09000000,-0.11200000
65,0.03500000,0.05600000
66,0.05000000,-0.05600000
67,-0.14500000,0.00800000
68,-0.15000000,-0.04800000
69,-0.45500000,0.00800000
70,-0.44500000,-0.04800000
71,-0.55000000,0.00800000
72,-0.51500000,-0.04000000
73,-0.29000000,0.00800000
74,-0.29000000,0.01600000
75,-0.14500000,-0.13600000
76,-0.16500000,-0.05600000
77,-0.08000000,0.02400000
78,-0.10500000,0.02400000
79,-0.04000000,-0.06400000
80,-0.07000000,-0.05600000
81,-0.01000000,0.11200000
82,-0.05000000,-0.04000000
83,0.00000000,0.04000000
84,-0.03000000,-0.02400000
85,0.00000000,0.03200000
86,-0.03000000,-0.05600000
87,0.01500000,0.11200000
88,-0.02000000,-0.01600000
89,0.00000000,0.04000000
90,-0.01000000,-0.00800000
91,0.00500000,0.04800000
92,0.02000000,-0.08000000
93,-0.01500000,0.16800000
94,-0.02000000,0.08800000
95,0.02000000,-0.04800000
96,-0.02000000,0.12000000
97,0.02500000,-0.06400000
98,-0.01500000,-0.08000000
99,0.04000000,0.15200000
100,-0.01500000,0.13600000
101,0.02500000,-0.05600000
102,0.02500000,-0.00800000
103,-0.00500000,0.10400000
104,-0.01000000,0.12800000
105,0.03000000,-0.06400000
106,-0.00500000,0.00000000
107,0.02500000,0.16000000
108,0.02500000,-0.00800000
109,-0.01000000,0.16000000
110,0.03000000,0.01600000
111,-0.02500000,0.16800000
112,0.03500000,0.16800000
113,-0.01500000,0.00000000
114,-0.01500000,0.00800000
115,0.03500000,0.16000000
116,0.02500000,0.16800000
117,-0.02000000,0.05600000
118,0.02500000,0.08800000
119,-0.00500000,0.13600000
120,0.03000000,0.00000000
121,-0.01500000,0.22400000
122,-0.00500000,0.09600000
123,0.01500000,0.15200000
124,0.00000000,0.16000000
125,0.02500000,0.09600000
126,0.02500000,0.10400000
127,-0.01000000,0.16800000
128,0.02500000,0.06400000
129,-0.01500000,0.27200000
130,-0.01000000,0.12000000
131,0.02500000,0.17600000
132,0.02000000,0.11200000
133,-0.01000000,0.19200000
134,-0.03500000,0.28000000
135,0.03500000,0.00000000
136,0.00000000,0.11200000
137,0.02000000,0.16800000
138,-0.00500000,0.11200000
139,0.01500000,0.16000000
140,-0.02000000,0.20000000
141,0.02000000,0.07200000
142,-0.01000000,0.14400000
143,0.03000000,0.08800000
144,-0.01000000,0.13600000
145,0.02500000,0.08000000
146,0.04000000,0.16000000
147,-0.02000000,0.06400000
148,-0.01000000,0.13600000
149,0.04000000,0.04800000
150,-0.01000000,0.10400000
151,0.03500000,0.03200000
152,-0.01000000,0.12000000
153,0.03000000,0.00800000
154,0.01500000,0.06400000
155,-0.00500000,0.02400000
156,0.00500000,0.06400000
157,0.02000000,0.00000000
158,-0.00500000,0.06400000
159,0.03500000,-0.01600000
160,0.03000000,0.04000000
161,-0.01000000,-0.02400000
162,-0.01000000,0.02400000
163,0.03500000,-0.03200000
164,0.03500000,-0.08800000
165,-0.00500000,0.04000000
166,-0.01500000,-0.04800000
167,0.03500000,0.02400000
168,0.00500000,0.04800000
169,0.04500000,-0.08800000
170,0.00000000,-0.00800000
171,0.02500000,-0.05600000
172,0.01500000,-0.00800000
173,0.03500000,-0.06400000
174,0.02500000,-0.07200000
175,0.04500000,0.01600000
176,0.02500000,-0.00800000
177,0.06500000,-0.08000000
178,0.04000000,0.04800000
179,0.09000000,-0.13600000
180,0.06000000,-0.01600000
181,0.12500000,-0.08000000
182,0.11000000,-0.09600000
183,0.21500000,-0.02400000
184,0.20500000,-0.08000000
185,0.33000000,0.00000000
186,0.36500000,-0.16000000
187,0.30000000,-0.01600000
188,0.32500000,-0.03200000
189,0.19000000,-0.09600000
190,0.20000000,-0.03200000
191,0.09000000,-0.08000000
192,0.11000000,-0.03200000
193,0.06500000,-0.08800000
194,0.08000000,-0.00800000
195,0.05500000,-0.09600000
196,0.04500000,-0.03200000
197,0.10000000,-0.10400000
198,0.04500000,0.00800000
199,0.09500000,-0.15200000
200,0.07500000,-0.08800000
201,0.03000000,-0.03200000
202,0.04000000,-0.03200000
203,-0.21500000,-0.08800000
204,-0.22000000,0.04800000
205,-0.50000000,-0.09600000
206,-0.55500000,-0.03200000
207,-0.48000000,-0.08800000
208,-0.47500000,-0.09600000
209,-0.24500000,-0.02400000
210,-0.26000000,0.02400000
211,-0.13500000,-0.09600000
212,-0.14500000,-0.08000000
213,-0.07000000,-0.01600000
214,-0.09000000,-0.08000000
215,-0.02500000,-0.01600000
216,-0.05500000,0.06400000
217,-0.00500000,-0.16800000
218,-0.04500000,-0.07200000
219,-0.01000000,-0.01600000
220,-0.03000000,-0.06400000
221,-0.00500000,-0.00800000
222,-0.00500000,-0.05600000
223,-0.01500000,-0.00800000
224,-0.01500000,-0.05600000
225,0.01000000,0.00000000
226,-0.01500000,0.00800000
227,0.02000000,-0.04800000
228,-0.02000000,0.06400000
229,0.02500000,-0.08800000
230,-0.02500000,-0.04000000
231,0.02500000,0.01600000
232,-0.01500000,0.01600000
233,0.02500000,-0.04800000
234,-0.01500000,-0.04800000
235,0.03000000,0.02400000
236,-0.00500000,0.01600000
237,0.02000000,-0.03200000
238,0.01000000,0.02400000
239,-0.00500000,-0.03200000
240,-0.00500000,-0.02400000
241,0.01500000,0.03200000
242,0.02500000,-0.08000000
243,-0.01000000,0.09600000
244,-0.01500000,-0.08800000
245,0.03500000,0.10400000
246,-0.01000000,0.11200000
247,0.02500000,-0.08800000
248,0.03000000,0.12000000
249,-0.02000000,-0.08800000
250,-0.01000000,-0.06400000
251,0.03000000,0.12000000
252,0.02000000,-0.04800000
253,-0.02000000,0.12800000
254,-0.01000000,0.08000000
255,0.02000000,-0.03200000
256,0.02000000,0.08000000
257,0.00000000,-0.04000000
258,0.04000000,-0.12800000
259,-0.01000000,0.13600000
260,0.02500000,0.05600000
261,-0.00500000,-0.04000000
262,0.03500000,0.00000000
263,-0.01000000,0.06400000
264,0.03500000,-0.02400000
265,-0.01500000,0.10400000
266,-0.01000000,0.06400000
267,0.02500000,0.00000000
268,-0.00500000,0.00800000
269,0.02500000,0.06400000
270,0.03000000,0.09600000
271,-0.02500000,-0.05600000
272,0.01000000,0.04800000
273,0.00000000,0.00000000
274,0.03000000,0.10400000
275,-0.01000000,-0.02400000
276,-0.01000000,-0.04800000
277,0.02500000,0.11200000
278,-0.01000000,0.04800000
279,0.03500000,-0.01600000
280,-0.01000000,0.04000000
281,0.03000000,-0.03200000
282,0.04000000,0.05600000
283,-0.01000000,-0.04800000
284,-0.01500000,0.02400000
285,0.02500000,-0.03200000
286,-0.00500000,0.01600000
287,0.02000000,-0.03200000
288,0.00000000,0.03200000
289,0.02500000,-0.08800000
290,0.01500000,0.00800000
291,0.00000000,-0.04800000
292,0.03000000,0.00800000
293,-0.00500000,-0.05600000
294,0.02000000,-0.05600000
295,0.00000000,0.02400000
296,-0.00500000,-0.00800000
297,0.02500000,-0.06400000
298,-0.00500000,0.00800000
299,0.04500000,-0.07200000
300,-0.00500000,0.00000000
301,0.03000000,-0.06400000
302,-0.00500000,-0.06400000
303,0.02500000,-0.00800000
304,0.01000000,-0.02400000
305,0.02500000,-0.06400000
306,0.01000000,-0.05600000
307,0.02500000,-0.00800000
308,0.01500000,-0.00800000
309,0.04000000,-0.06400000
310,0.01500000,-0.00800000
311,0.05000000,-0.05600000
312,0.02000000,-0.05600000
313,0.06500000,0.00000000
314,0.03500000,-0.07200000
315,0.10000000,0.00800000
316,0.06500000,-0.08000000
317,0.13500000,0.03200000
318,0.11000000,-0.06400000
319,0.21500000,0.01600000
320,0.20500000,0.00800000
321,0.33000000,-0.04000000
322,0.34500000,-0.03200000
323,0.31500000,0.01600000
324,0.32500000,0.06400000
325,0.19000000,-0.05600000
326,0.20000000,-0.04800000
327,0.09500000,0.04000000
328,0.10500000,-0.08000000
329,0.06000000,0.10400000
330,0.09000000,0.04000000
331,0.05000000,-0.02400000
332,0.08500000,-0.02400000
333,0.05000000,0.08800000
334,0.10500000,0.08800000
335,0.05500000,-0.10400000
336,0.07500000,-0.02400000
337,0.03000000,0.07200000
338,0.03000000,-0.00800000
339,-0.20500000,0.04000000
340,-0.20500000,-0.00800000
341,-0.49500000,0.06400000
342,-0.56000000,0.05600000
343,-0.48500000,0.00000000
344,-0.49500000,0.05600000
345,-0.26000000,-0.01600000
346,-0.26500000,-0.09600000
347,-0.12500000,0.12000000
348,-0.15500000,0.00000000
349,-0.07000000,0.06400000
350,-0.09500000,0.06400000
351,-0.03500000,0.00000000
352,-0.06000000,0.00800000
353,-0.02000000,0.06400000
354,-0.04000000,0.00800000
355,-0.01500000,0.05600000
356,-0.02500000,0.05600000
357,-0.00500000,0.00800000
358,-0.04500000,-0.03200000
359,0.02500000,0.10400000
360,-0.02000000,0.00800000
361,0.00500000,0.07200000
362,-0.02500000,0.07200000
363,0.02000000,0.00800000
364,-0.01500000,-0.04000000
365,0.02000000,0.12800000
366,0.02000000,0.00800000
367,-0.02000000,0.08000000
368,-0.00500000,0.02400000
369,0.02000000,0.07200000
370,0.01500000,-0.01600000
371,-0.01000000,0.12800000
372,-0.00500000,0.03200000
373,0.01000000,0.08000000
374,-0.00500000,0.02400000
375,0.01500000,0.08800000
376,0.01500000,0.14400000
377,-0.01500000,0.00800000
378,-0.01500000,0.04000000
379,0.03500000,0.10400000
380,-0.01500000,0.10400000
381,0.03000000,0.04800000
382,0.08500000,0.00800000
383,-0.03500000,0.16000000
384,-0.01500000,0.12800000
385,0.02500000,0.06400000
386,-0.00500000,0.08000000
387,0.02000000,0.13600000
388,-0.00500000,0.17600000
389,0.02000000,0.04800000
390,-0.00500000,0.18400000
391,0.02000000,0.04800000
392,-0.01500000,0.20800000
393,0.03000000,0.05600000
394,0.03000000,0.21600000
395,-0.01500000,0.08000000
396,-0.01000000,0.07200000
397,0.03000000,0.21600000
398,-0.01000000,0.06400000
399,0.03500000,0.24800000
400,0.03500000,0.28000000
401,-0.02000000,0.04800000
402,0.00000000,0.08800000
403,0.02500000,0.20800000
404,0.02500000,0.04800000
405,-0.01000000,0.20800000
406,0.02000000,0.20800000
407,-0.00500000,0.07200000
408,0.02000000,0.05600000
409,-0.00500000,0.20800000
410,-0.01500000,0.20800000
411,0.02500000,0.10400000
412,0.03500000,0.03200000
413,-0.02000000,0.28800000
414,-0.01500000,0.14400000
415,0.02000000,0.05600000
416,-0.00500000,0.13600000
417,0.03000000,0.00000000
418,-0.01000000,0.13600000
419,0.02500000,0.00800000
420,0.01500000,0.08000000
421,0.00000000,0.02400000
422,0.01500000,0.06400000
423,0.00000000,0.00800000
424,0.03500000,0.07200000
425,-0.02000000,-0.01600000
426,0.00000000,0.03200000
427,0.02500000,-0.03200000
428,-0.00500000,0.01600000
429,0.04000000,-0.05600000
430,-0.01500000,0.00000000
431,0.03500000,-0.08000000
432,-0.01000000,-0.01600000
433,0.03500000,-0.08800000
434,0.03000000,-0.04000000
435,-0.00500000,-0.20000000
436,0.03000000,-0.11200000
437,0.00000000,-0.03200000
438,0.02000000,-0.05600000
439,0.00500000,-0.12000000
440,0.01000000,-0.06400000
441,0.02500000,-0.12000000
442,0.00500000,-0.06400000
443,0.03500000,-0.13600000
444,0.01000000,-0.07200000
445,0.04500000,-0.12800000
446,0.01500000,-0.13600000
447,0.05500000,-0.04800000
448,0.03000000,-0.14400000
449,0.07500000,-0.07200000
450,0.05000000,-0.14400000
451,0.10000000,-0.07200000
452,0.07500000,-0.12800000
453,0.14500000,-0.07200000
454,0.12500000,-0.11200000
455,0.24500000,-0.07200000
456,0.24000000,-0.12000000
457,0.34500000,-0.06400000
458,0.35000000,-0.12000000
459,0.29000000,-0.05600000
460,0.29500000,-0.05600000
461,0.15000000,-0.12000000
462,0.16500000,-0.05600000
463,0.07000000,-0.10400000
464,0.11000000,-0.10400000
465,0.05000000,-0.04000000
466,0.05500000,-0.10400000
467,0.09000000,-0.04000000
468,0.05000000,-0.04000000
469,0.09000000,-0.09600000
470,0.08500000,0.08000000
471,0.04500000,-0.12000000
472,0.07000000,-0.03200000
473,-0.01500000,-0.10400000
474,-0.01000000,-0.03200000
475,-0.32000000,-0.08000000
476,-0.31000000,-0.03200000
477,-0.55500000,-0.12000000
478,-0.56500000,-0.08000000
479,-0.39500000,-0.02400000
480,-0.41000000,-0.08000000
481,-0.20000000,-0.02400000
482,-0.21500000,-0.10400000
483,-0.10500000,0.02400000
484,-0.12000000,-0.07200000
485,-0.06500000,-0.01600000
486,-0.07500000,-0.06400000
487,-0.02500000,-0.00800000
488,-0.04500000,-0.05600000
489,-0.02000000,-0.00800000
490,-0.03000000,-0.05600000
491,-0.00500000,0.00000000
492,0.01000000,-0.05600000
493,-0.02500000,0.00800000
494,-0.02500000,0.00800000
495,0.01000000,-0.04800000
496,-0.03000000,0.01600000
497,0.01000000,-0.04000000
498,-0.02000000,0.02400000
499,0.02500000,-0.04000000
500,-0.02500000,0.07200000
501,0.03500000,-0.12800000
502,-0.01000000,0.02400000
503,0.01500000,-0.02400000
504,0.01000000,-0.03200000
505,-0.00500000,0.02400000
506,0.01000000,0.01600000
507,-0.00500000,-0.02400000
508,-0.00500000,-0.02400000
509,0.01500000,0.02400000
510,-0.01000000,0.03200000
511,0.02500000,-0.02400000
512,0.04000000,-0.04800000
513,-0.02000000,0.07200000
514,-0.01500000,-0.02400000
515,0.03000000,0.04000000
516,0.03000000,-0.02400000
517,-0.01500000,0.04000000
518,-0.01000000,0.04800000
519,0.04000000,-0.06400000
520,-0.00500000,0.00000000
521,0.01500000,0.04800000
522,0.00000000,0.00000000
523,0.01000000,0.05600000
524,0.02000000,-0.00800000
525,-0.01500000,0.05600000
526,-0.00500000,0.00000000
527,0.02000000,0.06400000
528,0.02000000,0.00800000
529,-0.00500000,0.07200000
530,0.02500000,0.07200000
531,-0.01500000,0.01600000
532,-0.01000000,0.01600000
533,0.03500000,0.08800000
534,-0.01000000,0.00800000
535,0.02500000,0.14400000
536,-0.00500000,-0.01600000
537,0.02500000,0.13600000
538,0.02000000,-0.00800000
539,-0.00500000,0.13600000
540,-0.00500000,0.00000000
541,0.02500000,0.12000000
542,-0.01500000,0.16800000
543,0.04000000,-0.03200000
544,0.02500000,0.13600000
545,-0.01000000,-0.03200000
546,-0.01000000,-0.00800000
547,0.03500000,0.14400000
548,-0.01500000,-0.04000000
549,0.03500000,0.13600000
550,0.03000000,-0.06400000
551,-0.01000000,0.08000000
552,0.04000000,0.10400000
553,-0.01000000,-0.06400000
554,0.02500000,-0.04800000
555,-0.01000000,0.08800000
556,0.00000000,-0.03200000
557,0.02000000,0.08000000
558,0.03000000,0.09600000
559,-0.01500000,-0.04000000
560,-0.00500000,-0.05600000
561,0.02500000,0.08800000
562,-0.01000000,0.09600000
563,0.03500000,-0.04800000
564,0.03000000,0.03200000
565,-0.01000000,-0.05600000
566,0.02000000,-0.06400000
567,-0.01500000,0.08800000
568,0.02500000,0.02400000
569,0.00000000,-0.03200000
570,0.02000000,0.02400000
571,0.00000000,-0.03200000
572,0.00500000,0.01600000
573,0.02000000,-0.04000000
574,0.01000000,-0.04000000
575,0.02500000,0.01600000
576,0.00500000,0.02400000
577,0.03000000,-0.07200000
578,0.00500000,0.00800000
579,0.04000000,-0.05600000
580,0.01000000,-0.05600000
581,0.05000000,0.00800000
582,0.02000000,0.01600000
583,0.07000000,-0.10400000
584,0.02500000,0.00000000
585,0.06500000,-0.05600000
586,0.04500000,-0.05600000
587,0.09500000,0.01600000
588,0.08500000,-0.05600000
589,0.15000000,-0.00800000
590,0.14500000,-0.06400000
591,0.26000000,-0.00800000
592,0.24500000,-0.06400000
593,0.35000000,0.00000000
594,0.35000000,0.01600000
595,0.27500000,-0.08000000
596,0.29000000,0.00000000
597,0.14000000,-0.06400000
598,0.15500000,0.00000000
599,0.06500000,-0.07200000
600,0.11000000,-0.15200000
601,0.05500000,0.08000000
602,0.05500000,-0.05600000
603,0.08500000,-0.00800000
604,0.06500000,-0.00800000
605,0.07500000,-0.06400000
606,0.07500000,-0.05600000
607,0.05500000,-0.00800000
608,0.07000000,-0.05600000
609,-0.01500000,0.00000000
610,-0.01000000,-0.05600000
611,-0.32000000,0.00000000
612,-0.30500000,-0.05600000
613,-0.55500000,0.00000000
614,-0.56000000,-0.06400000
615,-0.40000000,0.00800000
616,-0.41000000,-0.06400000
617,-0.21000000,0.03200000
618,-0.22000000,0.12000000
619,-0.12000000,-0.12000000
620,-0.12000000,-0.04800000
621,-0.06500000,0.00800000
622,-0.07500000,-0.04000000
623,-0.03500000,0.00800000
624,-0.04500000,0.01600000
625,-0.02000000,-0.04800000
626,-0.03500000,-0.05600000
627,0.00000000,0.01600000
628,-0.03000000,-0.04000000
629,0.01000000,0.02400000
630,-0.03000000,-0.04000000
631,0.01500000,0.06400000
632,-0.02500000,-0.04000000
633,0.02500000,0.04800000
634,-0.01500000,-0.01600000
635,0.02500000,0.03200000
636,-0.02500000,-0.06400000
637,0.02500000,0.12000000
638,-0.00500000,-0.00800000
639,0.01000000,0.04000000
640,-0.00500000,-0.00800000
641,0.01000000,0.04800000
642,0.03000000,-0.06400000
643,-0.02500000,0.14400000
644,-0.01500000,0.06400000
645,0.01500000,0.00800000
646,-0.01500000,0.00800000
647,0.02500000,0.08000000
648,-0.01500000,0.01600000
649,0.03000000,0.08800000
650,0.03500000,0.02400000
651,-0.01500000,0.08800000
652,0.01500000,0.03200000
653,-0.01000000,0.08800000
654,0.02000000,0.12000000
655,-0.01000000,-0.00800000
656,0.01000000,0.05600000
657,0.00000000,0.11200000
658,-0.01000000,0.11200000
659,0.02000000,0.05600000
660,0.04000000,0.00800000
661,-0.02000000,0.15200000
662,-0.01000000,0.08000000
663,0.03000000,0.13600000
664,0.03500000,0.08000000
665,-0.02000000,0.14400000
666,0.03500000,0.16000000
667,-0.01500000,0.06400000
668,0.03000000,0.09600000
669,-0.00500000,0.15200000
670,-0.02500000,0.04800000
671,0.02500000,0.16000000
672,0.00000000,0.11200000
673,0.02000000,0.16000000
674,0.00000000,0.16000000
675,0.02000000,0.10400000
676,-0.00500000,0.11200000
677,0.03000000,0.16000000
678,-0.01000000,0.09600000
679,0.03000000,0.16800000
680,0.03000000,0.10400000
681,-0.00500000,0.16000000
682,0.02500000,0.16000000
683,-0.01500000,0.08000000
684,0.03000000,0.03200000
685,-0.03000000,0.21600000
686,0.00000000,0.12800000
687,0.02500000,0.07200000
688,-0.01000000,0.11200000
689,0.01500000,0.06400000
690,0.00000000,0.13600000
691,0.02000000,0.03200000
692,0.03500000,-0.04000000
693,-0.00500000,0.12800000
694,-0.02000000,0.17600000
695,0.03500000,-0.03200000
696,-0.01500000,0.13600000
697,0.06000000,-0.09600000
698,-0.00500000,0.06400000
699,0.04500000,-0.00800000
700,-0.00500000,0.09600000
701,0.03500000,-0.02400000
702,-0.00500000,-0.09600000
703,0.04500000,0.07200000
704,-0.00500000,0.01600000
705,0.02000000,-0.03200000
706,0.00500000,0.00800000
707,0.02000000,-0.04000000
708,0.00000000,-0.05600000
709,0.03000000,0.00000000
710,0.03000000,0.00000000
711,-0.00500000,-0.05600000
712,0.04000000,-0.06400000
713,-0.00500000,0.00800000
714,0.00000000,-0.00800000
715,0.04000000,-0.06400000
716,0.04500000,-0.00800000
717,0.01000000,-0.07200000
718,0.01000000,0.07200000
719,0.05500000,-0.13600000
720,0.04000000,-0.01600000
721,0.06500000,-0.07200000
722,0.06000000,-0.01600000
723,0.10000000,-0.06400000
724,0.09500000,-0.00800000
725,0.16500000,-0.08800000
726,0.15500000,-0.01600000
727,0.28500000,-0.07200000
728,0.26500000,-0.06400000
729,0.36000000,0.00000000
730,0.36500000,-0.09600000
731,0.26500000,0.03200000
732,0.27000000,-0.00800000
733,0.13000000,-0.07200000
734,0.14000000,-0.06400000
735,0.07500000,0.00000000
736,0.09500000,-0.11200000
737,0.05000000,0.11200000
738,0.08000000,0.00000000
739,0.06000000,-0.05600000
740,0.06500000,-0.04800000
741,0.08000000,0.00800000
742,0.10000000,0.06400000
743,0.02500000,-0.14400000
744,0.06500000,0.01600000
745,-0.07000000,-0.04000000
746,-0.06500000,0.02400000
747,-0.40500000,-0.03200000
748,-0.39500000,-0.17600000
749,-0.57500000,0.10400000
750,-0.56500000,0.02400000
751,-0.32500000,-0.03200000
752,-0.34500000,0.02400000
753,-0.16500000,-0.02400000
754,-0.17500000,0.05600000
755,-0.09000000,-0.06400000
756,-0.10500000,-0.06400000
757,-0.04500000,0.05600000
758,-0.07000000,-0.04000000
759,-0.02000000,0.08800000
760,-0.04000000,-0.06400000
761,-0.01000000,0.07200000
762,-0.03500000,-0.08000000
763,0.00500000,0.08000000
764,-0.02500000,0.10400000
765,0.02000000,-0.09600000
766,-0.03000000,-0.09600000
767,0.03500000,0.11200000
768,0.01000000,-0.06400000
769,-0.01500000,0.05600000
770,-0.01500000,0.06400000
771,0.01500000,-0.07200000
772,0.01500000,0.06400000
773,-0.01000000,-0.07200000
774,-0.00500000,0.08000000
775,0.02000000,-0.08800000
776,0.02500000,-0.09600000
777,-0.01000000,0.07200000
778,0.02500000,-0.08800000
779,-0.01500000,0.08800000
780,0.02500000,0.08800000
781,-0.01500000,-0.11200000
782,0.03000000,0.00800000
783,-0.01500000,-0.04000000
784,0.03500000,-0.13600000
785,-0.02000000,0.04800000
786,0.02000000,0.00800000
787,-0.01000000,-0.04800000
788,0.00000000,-0.04000000
789,0.01000000,0.00000000
790,0.01000000,-0.04800000
791,-0.00500000,0.00800000
792,0.02500000,0.00800000
793,-0.02000000,-0.05600000
794,-0.01000000,0.01600000
795,0.03000000,-0.07200000
796,-0.01000000,0.02400000
797,0.02500000,-0.04800000
798,-0.00500000,0.02400000
799,0.03500000,-0.04800000
800,-0.01000000,-0.05600000
801,0.03000000,0.04000000
802,0.02000000,0.06400000
803,-0.00500000,-0.08000000
804,0.00000000,-0.02400000
805,0.01500000,0.03200000
806,0.00000000,-0.01600000
807,0.01500000,0.05600000
808,0.01500000,-0.00800000
809,-0.00500000,0.04800000
810,0.02000000,0.04800000
811,-0.01000000,-0.00800000
812,-0.01000000,-0.00800000
813,0.03000000,0.05600000
814,-0.01500000,-0.18400000
815,0.02500000,0.07200000
816,-0.00500000,0.07200000
817,0.02000000,0.00000000
818,-0.01000000,0.06400000
819,0.02000000,0.00000000
820,-0.01000000,0.08000000
821,0.01500000,-0.00800000
822,0.01000000,0.01600000
823,0.00000000,0.05600000
824,0.04500000,-0.01600000
825,-0.02000000,0.14400000
826,0.02000000,0.04800000
827,-0.00500000,0.00800000
828,-0.00500000,-0.00800000
829,0.03000000,0.05600000
830,0.03500000,0.05600000
831,-0.01500000,-0.04800000
832,-0.01000000,-0.02400000
833,0.03500000,0.05600000
834,-0.01000000,0.08800000
835,0.03500000,-0.08800000
836,0.03000000,-0.08800000
837,-0.01500000,0.16800000
838,0.00000000,0.02400000
839,0.01500000,-0.02400000
840,0.00500000,-0.04000000
841,0.02000000,0.02400000
842,-0.00500000,-0.33600000
843,0.03500000,0.04800000
844,0.03500000,0.07200000
845,-0.00500000,-0.11200000
846,-0.00500000,0.05600000
847,0.04000000,-0.11200000
848,0.04000000,0.07200000
849,-0.00500000,-0.14400000
850,0.04500000,-0.13600000
851,0.00000000,0.06400000
852,0.01500000,0.01600000
853,0.05000000,-0.12000000
854,0.03000000,0.00800000
855,0.05500000,-0.12000000
856,0.04000000,0.00000000
857,0.08000000,-0.13600000
858,0.06500000,-0.12800000
859,0.12000000,-0.00800000
860,0.10500000,-0.20000000
861,0.20000000,0.10400000
862,0.18000000,-0.05600000
863,0.31500000,-0.10400000
864,0.30500000,-0.04800000
865,0.37000000,-0.11200000
866,0.33500000,-0.16800000
867,0.22000000,0.03200000
868,0.22500000,-0.05600000
869,0.11000000,-0.10400000
870,0.12500000,-0.09600000
871,0.07500000,-0.04800000
872,0.09000000,-0.09600000
873,0.06000000,-0.04800000
874,0.05500000,-0.09600000
875,0.08000000,-0.04000000
876,0.05500000,-0.08800000
877,0.09500000,-0.03200000
878,0.13000000,-0.31200000
879,0.04000000,-0.02400000
880,0.06000000,-0.08000000
881,-0.13500000,-0.01600000
882,-0.12500000,-0.08000000
883,-0.45500000,0.04800000
884,-0.44500000,0.04800000
885,-0.57500000,-0.08000000
886,-0.54000000,-0.04800000
887,-0.30000000,0.00000000
888,-0.30500000,-0.04800000
889,-0.15500000,0.00800000
890,-0.16500000,-0.04000000
891,-0.08500000,0.01600000
892,-0.10000000,0.02400000
893,-0.04500000,-0.04000000
894,-0.06500000,0.06400000
895,-0.01000000,-0.05600000
896,-0.04500000,0.04000000
897,0.00000000,-0.01600000
898,-0.03500000,-0.00800000
899,0.01000000,0.06400000
900,-0.03000000,0.06400000
901,0.01000000,-0.01600000
902,-0.03000000,0.09600000
903,0.01500000,-0.08000000
904,-0.01500000,0.02400000
905,0.01000000,0.06400000
906,0.00500000,0.08000000
907,-0.01000000,0.02400000
908,-0.00500000,0.08000000
909,0.02000000,0.03200000
910,-0.01500000,0.03200000
911,0.02500000,0.08800000
912,-0.01500000,0.14400000
913,0.03500000,0.02400000
914,-0.02000000,0.04000000
915,0.02500000,0.09600000
916,-0.01500000,0.04000000
917,0.03000000,0.09600000
918,-0.01500000,0.04000000
919,0.02500000,0.10400000
920,0.02000000,0.00800000
921,-0.01000000,0.17600000
922,0.01500000,0.04000000
923,-0.00500000,0.13600000
924,-0.00500000,0.16800000
925,0.02500000,-0.00800000
926,-0.01500000,0.17600000
927,0.01500000,0.04800000
928,0.02500000,0.04800000
929,-0.01000000,0.10400000
930,-0.02000000,-0.04000000
931,0.03500000,0.17600000
932,0.02500000,0.20000000
933,-0.02000000,-0.03200000
934,-0.01500000,0.04800000
935,0.03000000,0.12000000
936,0.01500000,0.13600000
937,-0.01000000,0.02400000
938,0.00000000,0.09600000
939,0.01500000,0.04800000
940,0.00000000,0.05600000
941,0.01500000,0.10400000
942,0.02500000,0.05600000
943,-0.01000000,0.12800000
944,0.02500000,0.03200000
945,-0.00500000,0.12800000
946,0.03500000,0.05600000
947,-0.01000000,0.11200000
948,-0.01000000,0.11200000
949,0.03500000,0.04800000
950,0.03000000,0.05600000
951,-0.01500000,0.12000000
952,-0.01500000,0.11200000
953,0.02500000,0.00800000
954,0.02500000,0.15200000
955,-0.02000000,0.04000000
956,0.00000000,0.10400000
957,0.01500000,0.06400000
958,-0.00500000,0.05600000
959,0.02500000,0.11200000
960,0.02000000,0.05600000
961,-0.00500000,0.11200000
962,-0.00500000,0.04800000
963,0.02000000,0.11200000
964,0.03000000,0.11200000
965,-0.01000000,-0.00800000
966,-0.01500000,0.00800000
967,0.03500000,0.15200000
968,0.02500000,0.04000000
969,-0.00500000,0.08800000
970,0.01500000,0.08800000
971,-0.00500000,0.03200000
972,0.00500000,0.07200000
973,0.01500000,0.02400000
974,0.00500000,0.07200000
975,0.02000000,0.00800000
976,0.02000000,-0.10400000
977,-0.00500000,0.06400000
978,-0.01000000,-0.02400000
979,0.03000000,0.12800000
980,-0.00500000,0.04000000
981,0.03500000,-0.02400000
982,-0.01000000,-0.03200000
983,0.05000000,0.03200000
984,0.04000000,-0.10400000
985,0.00000000,0.03200000
986,0.04000000,0.02400000
987,0.01000000,-0.04800000
988,0.04000000,-0.00800000
989,0.02000000,-0.05600000
990,0.02500000,-0.00800000
991,0.05500000,-0.07200000
992,0.03500000,-0.08000000
993,0.07500000,-0.02400000
994,0.06000000,-0.03200000
995,0.11500000,-0.08800000
996,0.10500000,-0.01600000
997,0.19500000,-0.14400000
998,0.19000000,-0.03200000
999,0.32000000,-0.11200000
1000,0.30500000,-0.04800000
1001,0.36500000,-0.11200000
1002,0.34500000,-0.16000000
1003,0.21000000,-0.00800000
1004,0.22000000,-0.10400000
1005,0.10500000,-0.05600000
1006,0.11000000,-0.10400000
1007,0.07000000,-0.05600000
1008,0.08500000,-0.11200000
1009,0.05500000,-0.04000000
1010,0.08000000,-0.04000000
1011,0.06000000,-0.09600000
1012,0.05500000,-0.08800000
1013,0.09500000,-0.02400000
1014,0.08500000,-0.11200000
1015,0.03500000,-0.02400000
1016,0.05500000,-0.08800000
1017,-0.16500000,-0.00800000
1018,-0.16000000,-0.06400000
1019,-0.48000000,-0.00800000
1020,-0.46000000,0.12000000
1021,-0.57000000,-0.09600000
1022,-0.52500000,-0.04000000
1023,-0.28000000,0.00800000
1024,-0.29000000,-0.03200000
1025,-0.14000000,0.07200000
1026,-0.15500000,-0.01600000
1027,-0.07500000,0.04800000
1028,-0.09000000,-0.00800000
1029,-0.02500000,0.05600000
1030,-0.06000000,-0.00800000
1031,-0.00500000,0.09600000
1032,-0.05500000,-0.00800000
1033,0.00000000,0.12800000
1034,-0.03000000,0.01600000
1035,0.00500000,0.07200000
1036,-0.02000000,0.03200000
1037,0.01000000,0.08000000
1038,-0.03000000,0.10400000
1039,0.01500000,0.01600000
1040,-0.01000000,0.03200000
1041,0.01000000,0.08800000
1042,-0.01000000,0.03200000
1043,0.01500000,0.08800000
1044,0.01500000,-0.01600000
1045,-0.01500000,0.09600000
1046,0.02000000,0.09600000
1047,-0.01500000,0.01600000
1048,0.03000000,0.08000000
1049,-0.01500000,0.02400000
1050,0.03500000,0.17600000
1051,-0.08500000,-0.32000000
1052,-0.01500000,-0.03200000
1053,0.02000000,0.11200000
1054,0.02500000,0.16000000
1055,-0.02000000,-0.04800000
1056,0.01500000,0.10400000
1057,-0.01000000,-0.03200000
1058,-0.01000000,-0.05600000
1059,0.02500000,0.11200000
1060,-0.00500000,0.08800000
1061,0.02500000,-0.04000000
1062,-0.02000000,-0.04800000
1063,0.03000000,0.08800000
1064,0.03000000,-0.06400000
1065,-0.01500000,0.12000000
1066,-0.02000000,-0.08800000
1067,0.03500000,0.17600000
1068,-0.01000000,-0.04800000
1069,0.02500000,0.04800000
1070,0.00000000,0.07200000
1071,0.02500000,-0.04800000
1072,0.00000000,-0.04800000
1073,0.02000000,0.08000000
1074,0.00000000,-0.00800000
1075,0.01500000,0.03200000
1076,0.02500000,0.00000000
1077,-0.01000000,0.04000000
1078,-0.00500000,-0.00800000
1079,0.03000000,0.05600000
1080,-0.01500000,0.05600000
1081,0.02500000,-0.00800000
1082,0.03000000,-0.00800000
1083,-0.01500000,0.07200000
1084,-0.01000000,0.00000000
1085,0.02500000,0.07200000
1086,0.01500000,0.05600000
1087,-0.00500000,0.00800000
1088,0.00000000,0.00800000
1089,0.01500000,0.05600000
1090,0.01500000,0.00000000
1091,-0.00500000,0.06400000
1092,0.00000000,0.00800000
1093,0.03000000,0.06400000
1094,0.02000000,0.06400000
1095,-0.00500000,0.00800000
1096,-0.01000000,0.12800000
1097,0.03500000,-0.01600000
1098,-0.01500000,0.00000000
1099,0.03500000,0.07200000
1100,-0.01000000,0.06400000
1101,0.03500000,0.00000000
1102,-0.00500000,-0.04800000
1103,0.03000000,0.08800000
1104,0.00000000,0.05600000
1105,0.02000000,0.00800000
1106,0.01500000,0.04800000
1107,0.00500000,-0.00800000
1108,-0.02500000,0.12800000
1109,0.03500000,-0.08800000
1110,-0.00500000,-0.01600000
1111,0.03000000,0.04800000
1112,-0.01000000,0.04000000
1113,0.04000000,-0.02400000
1114,-0.01000000,-0.07200000
1115,0.04000000,0.09600000
1116,0.03500000,0.02400000
1117,-0.00500000,-0.03200000
1118,0.00000000,0.02400000
1119,0.03000000,-0.04000000
1120,0.03500000,0.05600000
1121,0.00500000,-0.09600000
1122,0.01500000,0.00800000
1123,0.03500000,-0.04800000
1124,0.02500000,0.00000000
1125,0.05000000,-0.05600000
1126,0.03000000,0.02400000
1127,0.06500000,-0.08800000
1128,0.05000000,-0.00800000
1129,0.10000000,-0.06400000
1130,0.07500000,-0.01600000
1131,0.16500000,-0.07200000
1132,0.13500000,-0.01600000
1133,0.24500000,-0.08800000
1134,0.23500000,-0.08800000
1135,0.35500000,-0.03200000
1136,0.35500000,-0.12000000
1137,0.28500000,0.00800000
1138,0.29500000,0.00800000
1139,0.15500000,-0.15200000
1140,0.15500000,-0.04800000
1141,0.08500000,-0.10400000
1142,0.09500000,-0.11200000
1143,0.06000000,-0.04800000
1144,0.09000000,-0.10400000
1145,0.05000000,-0.02400000
1146,0.09000000,-0.05600000
1147,0.05500000,-0.11200000
1148,0.09500000,-0.18400000
1149,0.05000000,-0.04800000
1150,0.09500000,-0.19200000
1151,-0.01500000,-0.04800000
1152,0.00500000,-0.05600000
1153,-0.30000000,-0.11200000
1154,-0.29000000,-0.05600000
1155,-0.54500000,-0.10400000
1156,-0.56000000,-0.05600000
1157,-0.42000000,-0.09600000
1158,-0.42500000,-0.09600000
1159,-0.21500000,-0.04000000
1160,-0.22500000,0.09600000
1161,-0.11500000,-0.20000000
1162,-0.15000000,-0.16000000
1163,-0.06000000,0.04000000
1164,-0.08500000,-0.08000000
1165,-0.03000000,-0.01600000
1166,-0.05000000,-0.11200000
1167,-0.01500000,0.02400000
1168,-0.04500000,-0.06400000
1169,-0.00500000,0.00000000
1170,-0.03000000,-0.05600000
1171,0.00000000,0.00000000
1172,-0.00500000,0.00000000
1173,-0.01500000,-0.04800000
1174,-0.01500000,-0.04800000
1175,0.00500000,0.00800000
1176,0.01000000,-0.04000000
1177,-0.01000000,0.01600000
1178,0.02500000,-0.03200000
1179,-0.02000000,0.02400000
1180,0.02000000,-0.04000000
1181,-0.01500000,0.02400000
1182,0.03000000,-0.03200000
1183,-0.02000000,0.09600000
1184,0.03000000,-0.04000000
1185,-0.02000000,0.12000000
1186,-0.01500000,0.02400000
1187,0.01500000,-0.02400000
1188,0.01500000,-0.01600000
1189,-0.00500000,0.03200000
1190,0.01000000,-0.00800000
1191,0.00000000,0.04000000
1192,0.01500000,0.04800000
1193,-0.01500000,-0.00800000
1194,-0.00500000,-0.00800000
1195,0.02500000,0.04800000
1196,-0.03000000,0.21600000
1197,0.05500000,-0.10400000
1198,0.02500000,-0.00800000
1199,-0.01500000,0.08000000
